#Acq. time (s)=	60
#Accumulations=	2
#Range=	Off
#Autofocus=	Off
#SWIFT=	Off
#Macrospot=	Off
#AutoExposure=	Off
#Spike filter=	Multiple accum.
#Delay time (s)=	0
#Binning=	1
#Readout mode=	Signal
#DeNoise=	Standard
#ICS correction=	On
#Dark correction=	Off
#Inst. Process=	Off
#Detector Gain=	Best Dynamic Range
#Detector ADC=	20 kHz       
#Detector temperature (°C)=	-70.13
#Instrument=	LabRAM HR Evol
#Detector=	Synapse CCD
#Objective=	x50 LWD
#Grating=	600 gr/mm
#ND Filter=	1%
#Laser (nm)=	532 
#Spectro (cm-¹)=	974.962
#Hole=	499.984
#Range=	Visible
#Laser Pol.=	No
#Raman. Pol.=	No
#Laser Pol. (°)=	45.008
#Raman Pol. (°)=	-0.0055
#StageXY=	Marzhauser
#StageZ=	Marzhauser
#X (µm)=	-0.4
#Y (µm)=	-0.6
#Z (µm)=	-326.7
#Full time(mm:ss)=	6:05
#Project=	
#Sample=	
#Site=	
#Title=	lasertest1
#Remark=	
#Date=	17.05.2023 11:16
#Acquired=	17.05.2023 11:16:52
#Base:Fit Sub=	17.05.2023 11:22:56
#AxisType[0]=Intens
#AxisUnit[0]=Cnt
#AxisType[1]=Spectr
#AxisUnit[1]=1/cm
#AxisType[2]=Points
#AxisUnit[2]=
	83.7234	85.5632	87.4005	89.2374	91.0762	92.9124	94.7483	96.5859	98.4211	100.256	102.092	103.927	105.76	107.594	109.429	111.261	113.094	114.926	116.759	118.59	120.421	122.252	124.084	125.914	127.743	129.572	131.401	133.231	135.059	136.887	138.714	140.541	142.368	144.194	146.022	147.847	149.672	151.497	153.321	155.145	156.969	158.792	160.615	162.44	164.262	166.084	167.906	169.727	171.548	173.368	175.188	177.008	178.828	180.647	182.465	184.284	186.102	187.919	189.737	191.553	193.37	195.186	197.002	198.818	200.633	202.447	204.262	206.074	207.888	209.701	211.514	213.327	215.139	216.951	218.763	220.574	222.385	224.193	226.003	227.813	229.623	231.432	233.241	235.047	236.855	238.663	240.47	242.277	244.082	245.888	247.694	249.5	251.303	253.108	254.912	256.716	258.518	260.322	262.125	263.928	265.728	267.53	269.332	271.131	272.932	274.733	276.531	278.331	280.131	281.928	283.727	285.526	287.322	289.12	290.917	292.712	294.509	296.304	298.1	299.896	301.689	303.484	305.277	307.071	308.863	310.657	312.448	314.241	316.032	317.824	319.616	321.406	323.197	324.986	326.774	328.565	330.352	332.142	333.929	335.718	337.504	339.293	341.078	342.866	344.651	346.436	348.222	350.006	351.792	353.575	355.358	357.143	358.925	360.707	362.491	364.272	366.053	367.836	369.616	371.396	373.177	374.957	376.735	378.516	380.294	382.072	383.849	385.629	387.405	389.182	390.958	392.736	394.511	396.286	398.061	399.838	401.612	403.385	405.159	406.932	408.704	410.479	412.251	414.022	415.794	417.565	419.335	421.108	422.878	424.647	426.417	428.185	429.954	431.722	433.49	435.258	437.025	438.792	440.558	442.327	444.093	445.858	447.623	449.388	451.153	452.917	454.681	456.444	458.207	459.97	461.733	463.495	465.254	467.016	468.777	470.538	472.298	474.058	475.818	477.577	479.337	481.095	482.854	484.612	486.367	488.125	489.882	491.639	493.395	495.151	496.907	498.66	500.415	502.17	503.924	505.678	507.43	509.183	510.936	512.689	514.439	516.191	517.943	519.694	521.443	523.194	524.944	526.694	528.442	530.191	531.94	533.687	535.435	537.183	538.929	540.676	542.423	544.168	545.914	547.66	549.404	551.149	552.892	554.637	556.381	558.123	559.867	561.608	563.351	565.094	566.834	568.576	570.315	572.057	573.796	575.536	577.275	579.015	580.752	582.492	584.229	585.967	587.704	589.442	591.177	592.915	594.65	596.384	598.121	599.855	601.59	603.324	605.057	606.791	608.524	610.258	611.989	613.721	615.454	617.184	618.915	620.647	622.377	624.106	625.837	627.566	629.294	631.024	632.752	634.479	636.206	637.935	639.662	641.388	643.113	644.841	646.566	648.291	650.015	651.741	653.465	655.189	656.912	658.635	660.357	662.081	663.803	665.524	667.246	668.966	670.687	672.407	674.129	675.849	677.568	679.287	681.005	682.724	684.441	686.159	687.876	689.593	691.31	693.026	694.742	696.458	698.173	699.888	701.603	703.317	705.031	706.745	708.458	710.171	711.884	713.596	715.308	717.02	718.731	720.442	722.153	723.864	725.574	727.281	728.991	730.7	732.409	734.117	735.826	737.533	739.239	740.946	742.653	744.36	746.066	747.772	749.475	751.181	752.886	754.59	756.293	757.997	759.7	761.404	763.105	764.807	766.51	768.212	769.911	771.613	773.314	775.013	776.713	778.413	780.111	781.811	783.51	785.207	786.905	788.603	790.299	791.997	793.692	795.389	797.086	798.78	800.476	802.17	803.865	805.558	807.253	808.945	810.639	812.331	814.024	815.717	817.408	819.099	820.791	822.481	824.172	825.861	827.552	829.241	830.931	832.619	834.308	835.996	837.683	839.371	841.058	842.746	844.432	846.117	847.804	849.489	851.173	852.859	854.543	856.227	857.912	859.595	861.277	862.961	864.643	866.325	868.006	869.689	871.37	873.05	874.73	876.412	878.091	879.77	881.449	883.13	884.808	886.486	888.163	889.84	891.519	893.196	894.872	896.548	898.224	899.899	901.574	903.249	904.925	906.599	908.273	909.946	911.619	913.292	914.965	916.637	918.309	919.98	921.652	923.323	924.993	926.663	928.333	930.003	931.672	933.342	935.01	936.679	938.347	940.015	941.682	943.349	945.016	946.683	948.349	950.015	951.681	953.344	955.009	956.674	958.338	960.002	961.666	963.33	964.991	966.654	968.316	969.978	971.64	973.3	974.961	976.622	978.283	979.943	981.601	983.261	984.921	986.58	988.237	989.895	991.553	993.209	994.867	996.524	998.179	999.836	1001.49	1003.15	1004.8	1006.46	1008.11	1009.77	1011.42	1013.07	1014.73	1016.38	1018.03	1019.68	1021.33	1022.99	1024.64	1026.29	1027.94	1029.59	1031.24	1032.89	1034.54	1036.19	1037.83	1039.48	1041.13	1042.78	1044.43	1046.07	1047.72	1049.37	1051.01	1052.66	1054.3	1055.95	1057.59	1059.24	1060.88	1062.53	1064.17	1065.81	1067.46	1069.1	1070.74	1072.38	1074.02	1075.67	1077.31	1078.95	1080.59	1082.23	1083.87	1085.51	1087.15	1088.78	1090.42	1092.06	1093.7	1095.34	1096.97	1098.61	1100.25	1101.88	1103.52	1105.15	1106.79	1108.42	1110.06	1111.69	1113.33	1114.96	1116.59	1118.23	1119.86	1121.49	1123.12	1124.75	1126.39	1128.02	1129.65	1131.28	1132.91	1134.54	1136.17	1137.8	1139.43	1141.06	1142.68	1144.31	1145.94	1147.57	1149.19	1150.82	1152.45	1154.07	1155.7	1157.32	1158.95	1160.57	1162.2	1163.82	1165.45	1167.07	1168.69	1170.31	1171.94	1173.56	1175.18	1176.8	1178.42	1180.05	1181.67	1183.29	1184.91	1186.53	1188.15	1189.77	1191.39	1193	1194.62	1196.24	1197.86	1199.47	1201.09	1202.71	1204.32	1205.94	1207.56	1209.17	1210.79	1212.4	1214.01	1215.63	1217.24	1218.86	1220.47	1222.08	1223.7	1225.31	1226.92	1228.53	1230.14	1231.75	1233.36	1234.97	1236.58	1238.19	1239.8	1241.41	1243.02	1244.63	1246.24	1247.85	1249.45	1251.06	1252.67	1254.28	1255.88	1257.49	1259.09	1260.7	1262.3	1263.91	1265.51	1267.12	1268.72	1270.32	1271.93	1273.53	1275.13	1276.74	1278.34	1279.94	1281.54	1283.14	1284.74	1286.34	1287.94	1289.54	1291.14	1292.74	1294.34	1295.94	1297.54	1299.14	1300.74	1302.33	1303.93	1305.53	1307.12	1308.72	1310.32	1311.91	1313.51	1315.1	1316.69	1318.29	1319.88	1321.48	1323.07	1324.66	1326.26	1327.85	1329.44	1331.03	1332.63	1334.22	1335.81	1337.4	1338.99	1340.58	1342.17	1343.76	1345.35	1346.94	1348.53	1350.11	1351.7	1353.29	1354.87	1356.46	1358.05	1359.64	1361.22	1362.81	1364.39	1365.98	1367.56	1369.15	1370.73	1372.32	1373.9	1375.48	1377.07	1378.65	1380.23	1381.81	1383.4	1384.98	1386.56	1388.14	1389.72	1391.3	1392.88	1394.46	1396.04	1397.62	1399.2	1400.78	1402.35	1403.93	1405.51	1407.09	1408.67	1410.24	1411.82	1413.39	1414.97	1416.55	1418.12	1419.7	1421.27	1422.84	1424.42	1425.99	1427.56	1429.14	1430.71	1432.28	1433.86	1435.43	1437	1438.57	1440.14	1441.71	1443.28	1444.85	1446.42	1447.99	1449.56	1451.13	1452.7	1454.27	1455.84	1457.4	1458.97	1460.54	1462.11	1463.67	1465.24	1466.8	1468.37	1469.94	1471.5	1473.06	1474.63	1476.19	1477.76	1479.32	1480.88	1482.45	1484.01	1485.57	1487.13	1488.69	1490.26	1491.82	1493.38	1494.94	1496.5	1498.06	1499.62	1501.18	1502.74	1504.3	1505.86	1507.41	1508.97	1510.53	1512.09	1513.64	1515.2	1516.76	1518.31	1519.87	1521.42	1522.98	1524.54	1526.09	1527.64	1529.2	1530.75	1532.31	1533.86	1535.41	1536.96	1538.52	1540.07	1541.62	1543.17	1544.72	1546.27	1547.82	1549.37	1550.92	1552.47	1554.02	1555.57	1557.12	1558.67	1560.22	1561.76	1563.31	1564.86	1566.41	1567.95	1569.5	1571.05	1572.59	1574.14	1575.68	1577.23	1578.77	1580.32	1581.86	1583.4	1584.95	1586.49	1588.03	1589.58	1591.12	1592.66	1594.2	1595.74	1597.28	1598.82	1600.37	1601.91	1603.45	1604.99	1606.52	1608.06	1609.6	1611.14	1612.68	1614.22	1615.75	1617.29	1618.83	1620.37	1621.9	1623.44	1624.97	1626.51	1628.05	1629.58	1631.12	1632.65	1634.19	1635.72	1637.25	1638.79	1640.32	1641.85	1643.38	1644.92	1646.45	1647.98	1649.51	1651.04	1652.57	1654.1	1655.63	1657.16	1658.69	1660.22	1661.75	1663.28	1664.81	1666.34	1667.86	1669.39	1670.92	1672.44	1673.97	1675.5	1677.02	1678.55	1680.07	1681.6	1683.12	1684.65	1686.17	1687.7	1689.22	1690.74	1692.27	1693.79	1695.31	1696.84	1698.36	1699.88	1701.4	1702.92	1704.44	1705.96	1707.48	1709	1710.52	1712.04	1713.56	1715.08	1716.6	1718.12	1719.64	1721.15	1722.67	1724.19	1725.7	1727.22	1728.74	1730.25	1731.77	1733.28	1734.8	1736.32	1737.83	1739.34	1740.86	1742.37	1743.89	1745.4	1746.91	1748.42	1749.94	1751.45	1752.96	1754.47	1755.98	1757.49	1759.01	1760.51	1762.03	1763.54	1765.04	1766.55	1768.06	1769.57	1771.08	1772.59	1774.1	1775.6	1777.11	1778.62	1780.12	1781.63	1783.14	1784.64	1786.15
1	-4.05818	6.41124	14.4781	20.3102	22.0376	22.0768	20.7886	18.8094	16.3713	13.746	10.4517	7.18226	4.11257	1.35682	-0.896359	-2.56119	-3.64486	-4.21999	-4.32992	-3.98491	-3.31666	-2.25986	-0.940538	0.529454	1.78191	2.81842	3.61068	4.17518	4.14664	3.63675	2.65082	1.37471	0.356177	-0.645857	2.87811	7.5709	12.6695	16.923	20.1645	22.3995	22.7524	21.1639	18.2364	14.4975	14.3407	14.6514	14.6921	13.9824	12.0903	10.3475	8.73779	7.45094	6.68111	6.97259	9.0213	11.7928	14.7449	17.993	21.849	25.6947	28.4919	30.656	31.8784	31.8877	30.8905	27.2522	22.2259	17.3265	12.6733	9.05356	6.91517	5.75023	5.38042	6.26604	7.95192	10.7752	14.6744	20.0314	26.3578	33.3141	40.7928	48.4423	55.0624	60.8941	66.0408	70.3484	73.9232	76.8338	78.7464	80.0963	80.5799	80.505	79.0247	75.6038	70.5869	64.0952	57.432	51.1225	45.0767	39.394	34.4683	30.1756	26.3654	23.3497	21.0185	18.8466	17.0423	15.703	14.4832	14.0376	14.6126	15.8968	16.2669	15.4628	14.0394	11.3072	7.72014	3.98351	0.647332	-2.0353	-4.22752	-5.37494	-4.51362	-2.93453	-0.810534	1.86589	5.07654	8.60268	11.7097	16.4673	21.455	26.3517	30.7913	34.5007	35.4279	35.9427	35.8728	34.5246	32.4314	29.7842	26.7789	23.9038	21.2296	19.0036	17.6883	16.8429	16.6251	17.3766	18.7717	20.7472	22.944	25.3198	27.5032	29.3525	30.8629	31.9837	32.8559	32.4271	30.7747	28.7883	26.5592	24.8173	25.1	26.8066	28.8857	31.388	33.5444	35.3366	35.7472	35.5368	34.7764	33.4737	31.7373	29.7016	27.1198	24.6011	22.0959	19.764	17.7677	15.9837	14.5868	13.5127	12.9748	12.8862	13.2946	14.0669	15.3623	17.4999	20.752	23.6249	26.6237	28.8703	31.2807	34.579	37.7867	40.9503	43.5332	45.5085	46.9779	47.3075	47.1155	46.5241	45.5749	44.6072	43.2687	41.6762	40.1055	38.6528	37.2916	36.1293	34.9577	34.1998	33.5785	33.7832	34.2122	34.6785	35.2397	35.2029	33.4538	31.1463	29.6295	28.7775	29.3851	29.5815	28.9837	29.3293	30.4151	31.9625	33.202	34.1283	34.7566	34.302	33.9846	33.0885	32.3211	31.4864	31.0571	32.1152	34.6474	37.6754	41.1014	44.3911	47.8995	50.3181	52.2599	53.6364	54.4919	52.8158	49.2962	45.5233	41.8326	38.3644	36.6547	35.2215	34.0934	33.6412	35.2537	37.4354	39.9931	42.7159	45.211	45.9929	46.5908	46.0485	45.0958	43.9	40.9129	39.2615	42.2324	48.2135	54.7456	61.4882	67.3665	72.2018	76.0537	79.5466	82.3139	85.0557	85.5781	85.196	84.0636	82.3474	80.078	77.4613	74.4072	72.0667	69.0406	65.6825	62.48	58.5028	54.1689	49.3176	44.4345	39.6903	35.1492	32.7966	30.9535	30.394	30.9965	31.4414	32.1243	31.7622	31.7727	31.2588	31.2436	31.6384	32.9181	34.7962	36.4206	38.4157	40.11	40.4643	53.5647	74.2235	125.65	120.909	75.2258	53.1163	46.4562	55.0707	61.0963	64.3828	66.2888	65.7196	64.421	59.3343	64.3488	67.2891	69.6315	71.147	71.9376	72.3149	72.9002	72.5175	71.1516	69.4928	67.7709	66.3314	65.5174	66.2124	66.7923	67.818	68.7494	70.0041	71.2866	72.4858	73.2893	74.1101	73.8563	73.4258	72.63	74.5332	77.8492	80.6249	82.4328	84.0805	85.0823	85.1962	84.5022	82.3559	79.8671	76.6628	72.8581	69.7369	67.904	66.417	65.0107	63.6147	62.0571	59.8624	57.8833	56.0237	53.8915	51.7132	49.6452	47.1081	44.6145	42.097	39.4132	38.2869	37.5097	37.741	38.5737	39.1502	39.6251	39.5202	39.4504	39.5263	39.4243	39.3782	39.4752	39.7087	40.154	41.0483	42.3872	44.2866	46.6073	48.7146	51.3404	53.7808	55.5956	56.485	56.5065	54.0005	49.496	45.1236	40.4895	35.5794	31.4807	27.7767	24.7255	22.9625	22.3084	24.3311	28.2357	34.016	51.6763	55.2195	57.9156	59.8426	62.0515	62.8553	61.9219	53.1648	51.3142	44.0238	40.6717	38.2811	37.3101	37.1011	37.5504	38.1535	38.5429	39.608	41.3057	42.8283	43.8543	43.7719	40.1944	36.6637	41.07	39.7914	38.0506	35.1601	32.0098	26.7258	21.4663	16.2839	11.5019	8.87521	7.4994	7.99041	9.08401	15.2183	16.5202	16.5383	15.0867	8.99145	8.1165	11.4236	15.7408	19.108	21.176	22.3184	23.1865	24.836	26.6619	28.2243	29.3804	29.7656	29.3342	28.2197	26.2391	23.0134	18.447	9.97059	8.10675	9.45117	11.6225	14.0952	16.5691	18.8803	20.4993	21.784	22.1983	22.0437	21.5138	20.1621	18.5003	16.4079	13.9408	10.784	6.78197	1.61438	-3.30563	-7.46243	-7.86065	-5.41432	-0.406293	5.85385	13.0432	20.3186	25.5628	29.6779	32.5874	25.5555	25.9483	26.2109	25.8658	25.2232	24.5297	22.2238	20.0466	18.6681	18.1584	19.3459	22.3268	27.0725	32.1894	37.4368	42.5876	44.2473	45.1388	45.8066	46.5034	47.9398	49.4943	51.0135	52.8623	54.8515	56.9691	59.3276	61.0121	62.3816	62.452	63.4402	65.6975	68.4389	70.2681	70.9161	68.3519	64.7697	60.8251	56.5651	53.5609	49.344	45.3092	40.1914	35.1246	30.8679	27.3912	25.934	26.059	27.7337	29.9831	32.6843	35.6236	37.3792	39.6012	42.0861	44.5465	46.7702	48.6023	49.694	50.4683	50.0171	48.7852	46.2228	43.2855	40.3465	37.482	34.8913	32.6908	31.4223	30.0451	29.3294	28.8529	29.3531	29.6867	30.4263	29.5262	26.1455	22.5489	18.8601	15.2045	12.2051	10.1964	7.3549	4.84509	3.37467	2.83956	3.3765	5.76096	9.04423	13.3702	16.5769	19.6438	21.3518	22.8901	24.2612	25.3686	26.2848	26.4129	27.4022	28.6183	29.6446	29.7367	29.5173	28.8814	28.0013	26.7978	25.3787	23.8707	22.1864	20.5901	19.2008	16.8983	13.9606	10.8342	7.62715	4.77414	2.25983	1.81671	1.16884	1.86098	3.07935	4.97247	6.87963	8.71647	9.79366	9.81533	9.74398	8.72968	6.39387	2.30277	-1.6811	-5.65002	-5.70165	-5.12709	-3.06555	-0.73846	1.83034	4.06599	5.72974	7.68406	8.60889	9.47112	9.51174	9.29819	9.79331	10.2802	11.7897	13.2716	14.8031	15.2128	14.8979	14.7427	15.2098	15.8725	17.9351	19.6715	21.9076	24.7631	27.8714	32.6818	38.4425	43.9381	48.7281	52.5009	55.56	57.6962	58.3001	55.9126	51.9386	47.2777	42.6177	39.0917	35.8582	32.8113	29.8367	27.5103	25.8587	25.0739	24.0802	23.2971	22.2866	22.0826	22.2036	23.2356	25.2897	27.6719	30.2714	32.766	34.3147	32.1475	35.3237	46.2444	46.3527	44.5821	42.014	38.5544	34.0772	27.3889	20.4083	13.7382	11.0716	11.2889	12.6824	15.0621	17.8914	21.2166	24.6929	28.3633	31.562	35.251	39.2186	43.1454	47.0762	51.2797	54.7022	57.8956	60.3681	62.12	66.2816	70.6521	75.3456	78.9393	80.5783	80.9972	80.4607	78.7572	75.9515	72.353	68.0989	62.3535	56.392	50.417	45.8237	43.246	41.359	40.3617	40.0821	40.3878	41.4827	43.0512	44.998	46.8663	50.3132	53.577	56.6289	56.9078	54.5373	51.6739	47.5477	42.7424	38.226	34.6074	31.543	30.0207	28.9919	28.5949	28.3982	29.3153	31.052	33.3171	35.5361	36.7515	36.3788	35.841	35.3808	35.2063	35.9486	36.0836	36.062	35.0898	33.9596	30.1178	25.5509	20.8994	18.0018	15.7783	13.9539	12.6097	11.7764	11.3516	11.3724	11.7575	12.6416	13.79	15.0617	16.5625	18.1562	19.9729	20.6125	20.9169	21.1156	21.7298	24.3304	29.7547	35.3575	41.2722	47.2319	51.6329	54.9076	56.9198	57.0069	53.581	47.9301	40.9495	34.8034	28.8131	21.626	14.998	9.02055	3.77321	-0.125769	-1.77138	-2.3813	-2.05371	-0.907167	1.52367	4.45069	7.94026	10.8479	13.969	17.2238	19.9517	22.0347	23.4174	24.5152	22.9227	21.4456	20.7699	20.6835	21.6531	22.4037	21.8489	20.5975	20.1021	19.9996	20.3974	20.8156	21.1886	21.5178	21.5819	21.3832	20.6542	19.6383	18.1206	16.2955	14.4456	12.959	10.7448	8.30212	5.77557	3.49913	1.8853	0.920402	1.37665	1.81111	2.3733	3.39319	4.95818	7.39045	10.0571	12.4128	10.3891	4.59668	3.3316	2.81863	2.56142	1.82025	0.25173	-1.96285	-4.02208	-5.86529	-7.24503	-8.04336	-6.85257	-5.14151	-3.33058	-1.1959	1.08322	3.51888	4.30396	4.55346	4.62322	4.51595	5.5859	8.60371	11.9157	15.2051	18.9727	22.2732	26.5284	30.8897	38.5294	46.1619	52.7865	55.7021	56.7855	55.739	52.6147	46.788	38.3507	28.1003	15.9848	11.0205	20.3474	19.4618	13.6373	8.14506	3.42814	0.717709	-0.365173	-0.0842503	1.42593	4.23682	9.36098	15.7264	22.7832	30.2661	36.852	41.5852	45.6447	48.584	49.7727	49.0728	46.6709	42.9049	37.9604	32.019	24.5329	17.3191	11.5413	7.8892	7.11429	8.57952	11.3607	15.229	19.6328	23.4818	27.8794	32.2936	35.4769	37.1513	35.5841	32.0553	27.3621	24.1628	20.6974	17.5148	14.5466	11.9504	11.0429	11.7607	12.7201	14.6436	16.8814	19.3235	21.2788	22.9136	23.638	24.1808	23.5046	22.0994	21.3637	21.4641	20.9753	19.9503	15.0927	9.20194	3.87213	0.0940996	-2.87055	-4.06123	-1.6835	1.98091	4.69813	5.22439	5.6111	6.08532	7.09446	8.49372	11.0688	13.5756	16.1246	18.3865	19.9604	20.2976	19.7485	17.6332	12.7807	15.6257	20.4154	26.3449	32.1767	36.9052	40.4049	42.7553	41.5388	38.741	35.1461	30.998	28.5741	24.5246	19.8384	14.4122	9.02968	4.07948	0.0215417	-2.78378	-4.58025	-4.74187	-3.85311	-1.57497	1.31899	4.34809	4.349	4.87605	2.61674	0.558903	3.61988	12.3297
